File: Y3-Labs/XRD/Raw XRD Data/Filter Data/2 1 6.txt
        30,      2636,
     30.02,      2574,
     30.04,      2469,
     30.06,      2556,
     30.08,      2524,
      30.1,      2503,
     30.12,      2497,
     30.14,      2590,
     30.16,      2585,
     30.18,      2523,
      30.2,      2564,
     30.22,      2533,
     30.24,      2641,
     30.26,      2627,
     30.28,      2632,
      30.3,      2566,
     30.32,      2642,
     30.34,      2669,
     30.36,      2611,
     30.38,      2681,
      30.4,      2756,
     30.42,      2661,
     30.44,      2628,
     30.46,      2749,
     30.48,      2758,
      30.5,      2747,
     30.52,      2741,
     30.54,      2754,
     30.56,      2871,
     30.58,      2702,
      30.6,      2865,
     30.62,      2876,
     30.64,      3002,
     30.66,      2942,
     30.68,      2823,
      30.7,      2929,
     30.72,      3057,
     30.74,      2991,
     30.76,      2922,
     30.78,      3050,
      30.8,      3066,
     30.82,      3097,
     30.84,      3024,
     30.86,      3218,
     30.88,      3184,
      30.9,      3337,
     30.92,      3370,
     30.94,      3357,
     30.96,      3527,
     30.98,      3549,
        31,      3633,
     31.02,      3956,
     31.04,      4303,
     31.06,      4985,
     31.08,      5781,
      31.1,      7263,
     31.12,      9486,
     31.14,     12095,
     31.16,     14660,
     31.18,     16660,
      31.2,     18240,
     31.22,     20211,
     31.24,     21615,
     31.26,     22646,
     31.28,     23714,
      31.3,     24514,
     31.32,     24846,
     31.34,     25508,
     31.36,     26341,
     31.38,     26710,
      31.4,     27358,
     31.42,     27593,
     31.44,     28520,
     31.46,     28809,
     31.48,     29038,
      31.5,     29524,
     31.52,     30206,
     31.54,     30796,
     31.56,     31147,
     31.58,     32918,
      31.6,     35476,
     31.62,     38381,
     31.64,     40458,
     31.66,     41377,
     31.68,     42559,
      31.7,     44195,
     31.72,     44603,
     31.74,     44884,
     31.76,     44966,
     31.78,     44368,
      31.8,     44723,
     31.82,     44619,
     31.84,     45933,
     31.86,     46707,
     31.88,     48535,
      31.9,     49344,
     31.92,     49374,
     31.94,     49726,
     31.96,     50299,
     31.98,     50161,
        32,     49814,
     32.02,     48727,
     32.04,     48271,
     32.06,     47222,
     32.08,     46505,
      32.1,     44623,
     32.12,     43014,
     32.14,     41196,
     32.16,     38321,
     32.18,     34602,
      32.2,     28324,
     32.22,     21748,
     32.24,     17480,
     32.26,     14008,
     32.28,     10534,
      32.3,      7338,
     32.32,      5382,
     32.34,      4404,
     32.36,      3994,
     32.38,      3768,
      32.4,      3465,
     32.42,      3413,
     32.44,      3296,
     32.46,      3129,
     32.48,      3142,
      32.5,      2997,
     32.52,      2983,
     32.54,      2911,
     32.56,      2728,
     32.58,      2739,
      32.6,      2657,
     32.62,      2826,
     32.64,      2659,
     32.66,      2668,
     32.68,      2653,
      32.7,      2649,
     32.72,      2607,
     32.74,      2510,
     32.76,      2554,
     32.78,      2609,
      32.8,      2581,
     32.82,      2596,
     32.84,      2611,
     32.86,      2523,
     32.88,      2570,
      32.9,      2519,
     32.92,      2501,
     32.94,      2492,
     32.96,      2427,
     32.98,      2533,
        33,      2490,
     33.02,      2368,
     33.04,      2308,
     33.06,      2430,
     33.08,      2456,
      33.1,      2412,
     33.12,      2446,
     33.14,      2419,
     33.16,      2358,
     33.18,      2401,
      33.2,      2449,
     33.22,      2397,
     33.24,      2327,
     33.26,      2342,
     33.28,      2385,
      33.3,      2288,
     33.32,      2314,
     33.34,      2252,
     33.36,      2323,
     33.38,      2322,
      33.4,      2311,
     33.42,      2289,
     33.44,      2279,
     33.46,      2314,
     33.48,      2217,
      33.5,      2261,
     33.52,      2263,
     33.54,      2226,
     33.56,      2165,
     33.58,      2203,
      33.6,      2271,
     33.62,      2243,
     33.64,      2202,
     33.66,      2219,
     33.68,      2174,
      33.7,      2253,
     33.72,      2320,
     33.74,      2161,
     33.76,      2157,
     33.78,      2140,
      33.8,      2164,
     33.82,      2173,
     33.84,      2185,
     33.86,      2167,
     33.88,      2175,
      33.9,      2135,
     33.92,      2258,
     33.94,      2045,
     33.96,      2114,
     33.98,      2055,
        34,      2152,